T=10;Mw=94.9;chem=PI;origin=LeedsDA;label=PI88k_09_PP-10;PDI=1.03;
Freq	G'	G"	Temp	Strain	PhaseAngle	Eta*	Torque	PhaseAngle	Eta"	Eta'	Temp	tan_delta	NormalStress
rad/s	Pa	Pa	°C	%	°	Pa-s	N-m	°	Pa-s	Pa-s	°C	 	Pa
            100       3.1046E5          76833         10.007        0.96867           13.9         3198.3      0.0006083           13.9         3104.6         768.33
         68.129       2.9235E5          79590         10.024        0.96582         15.229         4447.4     0.00057459         15.229         4291.2         1168.2
         46.416       2.7327E5          82358         10.017        0.96523         16.772         6148.9     0.00054091         16.772         5887.3         1774.3
         31.623       2.5296E5          85387         10.009        0.96316         18.652         8442.7      0.0005049         18.652         7999.3         2700.2
         21.544        2.317E5          88521         10.011        0.96271          20.91          11513     0.00046885          20.91          10755         4108.8
         14.678       2.0921E5          91403         9.9997        0.96204           23.6          15554     0.00043126           23.6          14254         6227.2
             10       1.8638E5          94009         9.9917        0.96218         26.767          20874     0.00039437         26.767          18638         9400.9
         6.8129       1.6209E5          96374         9.9984        0.96293         30.735          27679     0.00035654         30.735          23791          14146
         4.6416       1.3608E5          98757         9.9978         0.9641          35.97          36224     0.00031828          35.97          29317          21277
         3.1623       1.0749E5          98725         10.007        0.96556         42.567          46152     0.00027669         42.567          33990          31220
         2.1544          77506          93512         9.9999        0.96716         50.347          56375     0.00023065         50.347          35975          43404
         1.4678          49952          82087         9.9923        0.96827         58.678          65466     0.00018269         58.678          34032          55925
              1          28918          66199         9.9937        0.96989         66.403          72239     0.00013757         66.403          28918          66199
        0.68129          15230          49704         9.9883        0.97088         72.964          76304      9.9101E-5         72.964          22355          72956
        0.46416         7702.6          35821         9.9987         1.9442         77.864          78937     0.00013986         77.864          16595          77173
        0.31623         3745.8          25111         10.001         1.9429         81.516          80287      9.6855E-5         81.516          11845          79409
        0.21544         1771.6          17294          9.986         3.8869         84.151          80694     0.00013268         84.151         8223.2          80274
        0.14678         860.36          11868         9.9769         3.8877         85.853          81064      9.0827E-5         85.853         5861.6          80852
            0.1          407.5         8117.1         9.9782         7.7778         87.126          81273     0.00012412         87.126           4075          81171
        0.06813         205.39         5532.7         9.9984         7.7781         87.874          81264      8.4554E-5         87.874         3014.7          81208
        0.04642         99.043           3787         9.9887         9.7221         88.502          81616      7.2316E-5         88.502         2133.8          81588
        0.03162         50.194         2570.5         10.002         9.7224         88.881          81303       4.908E-5         88.881         1587.3          81287
