T=30;Mw=483.1;chem=PI;origin=LeedsDA;label=PI400K;PDI=1.03;
Freq	G'	G"	Temp	Strain	PhaseAngle	Eta*	Torque	PhaseAngle	Eta"	Eta'	Temp	tan_delta	NormalStress
rad/s	Pa	Pa	°C	%	°	Pa-s	N-m	°	Pa-s	Pa-s	°C	 	Pa
         31.623       3.9446E5          35009         29.997        0.99333          5.072          12523     0.00077237         5.0719          12474         1107.1
         21.544       3.8611E5          37456         30.002         0.9939          5.541          18006     0.00075704         5.5408          17922         1738.6
         14.678       3.7697E5          40397         30.005        0.99408          6.117          25830     0.00074001         6.1167          25683         2752.2
             10       3.6689E5          43395          30.01        0.99456          6.746          36944     0.00072146         6.7456          36689         4339.5
         6.8129       3.5585E5          46602         30.012        0.99501          7.461          52678     0.00070117          7.461          52232         6840.3
         4.6416       3.4436E5          50397         30.008        0.99524          8.326          74981     0.00068011          8.326          74191          10858
         3.1623       3.3198E5          54046         30.008        0.99514          9.247       1.0636E5     0.00065722         9.2466       1.0498E5          17091
         2.1544       3.1882E5          58119         30.006        0.99552         10.331       1.5042E5     0.00063346         10.331       1.4798E5          26976
         1.4678       3.0467E5          62484         30.007        0.99571          11.59       2.1189E5     0.00060806          11.59       2.0757E5              0
              1       2.8953E5          68381         30.016        0.99594         13.289       2.9749E5     0.00058176         13.289       2.8953E5          68381
        0.68129         2.73E5          74582         30.031        0.99639          15.28        4.154E5     0.00055367          15.28       4.0071E5       1.0947E5
        0.46416       2.5463E5          81635         30.018        0.99696         17.776       5.7609E5     0.00052344         17.776       5.4858E5       1.7588E5
        0.31623       2.3411E5          89396         30.002        0.99735         20.899       7.9247E5     0.00049075         20.899       7.4033E5       2.8269E5
        0.21544       2.1131E5          97094         29.991        0.99794         24.678       1.0794E6     0.00045567         24.678       9.8083E5       4.5067E5
        0.14678       1.8435E5        1.054E5         29.983        0.99868         29.758       1.4468E6     0.00041641         29.758        1.256E6        7.181E5
            0.1       1.5292E5       1.1188E5         29.984        0.99948          36.19       1.8947E6     0.00037184         36.191       1.5292E6       1.1188E6
        0.06813       1.1752E5       1.1278E5         29.987         1.0003         43.821       2.3908E6     0.00031991         43.821       1.7249E6       1.6554E6
        0.04642          81790       1.0555E5         29.994         1.0012         52.228       2.8769E6     0.00026251         52.228       1.7621E6        2.274E6
        0.03162          50982          90500         30.004         1.0019         60.606       3.2847E6     0.00020434         60.606       1.6122E6       2.8618E6
        0.02154          28911          71643         30.006         1.0027         68.024       3.5859E6     0.00015211         68.024       1.3419E6       3.3254E6
        0.01468          15238          53187         30.002         1.0028         74.013       3.7694E6     0.00010894         74.013       1.0382E6       3.6236E6
           0.01         7600.3          37940         30.002         1.0032         78.672       3.8694E6      7.6217E-5         78.672       7.6003E5        3.794E6
        0.00681         3774.7          26524         30.003          2.006         81.901       3.9325E6     0.00010553         81.901       5.5405E5       3.8932E6
        0.00464           1892          18374         29.999         2.0061         84.121       3.9794E6      7.2756E-5         84.121       4.0761E5       3.9585E6
        0.00316         915.39          12649             30         4.0166         85.861       4.0103E6     0.00010001         85.861       2.8947E5       3.9998E6
        0.00215         473.24           8648         29.998         4.0165         86.868       4.0201E6      6.8303E-5         86.868       2.1966E5        4.014E6
        0.00147         235.92         5916.6         30.002         8.0322         87.717       4.0342E6      9.3386E-5         87.717       1.6073E5        4.031E6
          0.001          130.6           4068         29.999         10.032         88.161       4.0701E6      8.0171E-5         88.161        1.306E5        4.068E6
     0.00068129         61.174         2773.9         30.001         10.038         88.737       4.0726E6      5.4685E-5         88.737          89792       4.0716E6
