T=50;Mw=483.1;chem=PI;origin=LeedsDA;label=PI400K;PDI=1.03;
Freq	G'	G"	Temp	Strain	PhaseAngle	Eta*	Torque	PhaseAngle	Eta"	Eta'	Temp	tan_delta	NormalStress
rad/s	Pa	Pa	°C	%	°	Pa-s	N-m	°	Pa-s	Pa-s	°C	 	Pa
         31.623       3.8305E5          48638         50.015        0.99183          7.236          12210     0.00075196         7.2364          12113         1538.1
         21.544       3.7125E5          52036         50.015        0.99295          7.979          17401     0.00073089         7.9788          17232         2415.3
         14.678       3.5846E5          55623         50.012        0.99359           8.82          24714      0.0007077         8.8203          24422         3789.6
             10        3.448E5          59677         50.011        0.99444          9.819          34993     0.00068327         9.8192          34480         5967.7
         6.8129       3.3029E5          64145         50.009          0.995          10.99          49386     0.00065734          10.99          48480         9415.2
         4.6416       3.1468E5          69366         50.004        0.99539         12.431          69423     0.00062978         12.431          67795          14945
         3.1623       2.9799E5          75398         50.001        0.99601         14.199          97202     0.00060113         14.199          94233          23843
         2.1544       2.7942E5          82455         50.001        0.99641         16.441       1.3522E5     0.00056997         16.441       1.2969E5          38272
         1.4678       2.5927E5          90497         50.001        0.99642         19.241       1.8709E5     0.00053726         19.242       1.7664E5          61655
              1       2.3594E5          98621         50.003        0.99729         22.685       2.5572E5     0.00050074         22.685       2.3594E5          98621
        0.68129       2.0951E5       1.0787E5          50.01        0.99806         27.242       3.4588E5     0.00046179         27.242       3.0752E5       1.5833E5
        0.46416       1.7902E5       1.1571E5         49.998        0.99866         32.877       4.5923E5     0.00041797         32.877       3.8568E5       2.4928E5
        0.31623       1.4295E5        1.202E5          50.01        0.99967         40.057       5.9062E5      0.0003666         40.057       4.5206E5       3.8009E5
        0.21544       1.0493E5       1.1689E5         49.993         1.0005         48.085       7.2911E5     0.00030859         48.085       4.8706E5       5.4256E5
        0.14678          68942       1.0467E5         49.998         1.0016          56.63       8.5392E5      0.0002465          56.63       4.6969E5       7.1314E5
            0.1          40860          86150         49.995         1.0023         64.626       9.5348E5     0.00018765         64.626        4.086E5        8.615E5
        0.06813          22089          65815         49.998         1.0029         71.447        1.019E6      0.0001367         71.447       3.2422E5       9.6603E5
        0.04642          11340          47918         50.007         1.0029         76.685       1.0609E6      9.6969E-5         76.685       2.4432E5       1.0324E6
        0.03162         5619.1          33788         50.005         2.0061         80.558       1.0831E6     0.00013492         80.558       1.7769E5       1.0685E6
        0.02154         2740.6          23472         50.009         2.0064          83.34       1.0969E6      9.3097E-5          83.34       1.2721E5       1.0895E6
        0.01468         1343.8          16177         49.997         4.0141         85.251        1.106E6     0.00012794         85.251          91556       1.1022E6
           0.01         687.22          11106         50.005         4.0142         86.459       1.1127E6      8.7705E-5         86.459          68722       1.1106E6
        0.00681         336.94         7606.9         49.996         8.0318         87.464       1.1176E6     0.00012008         87.464          49456       1.1165E6
        0.00464         173.46         5226.4         49.994          8.032         88.099       1.1266E6      8.2471E-5         88.099          37372        1.126E6
        0.00316         92.071         3583.9         49.999         10.029         88.528       1.1337E6      7.0597E-5         88.528          29116       1.1333E6
        0.00215         48.313         2446.2         50.001         10.029         88.869       1.1356E6       4.818E-5         88.869          22425       1.1354E6
        0.00147         27.572         1689.5         49.999         10.035         89.065       1.1512E6      3.3295E-5         89.065          18785        1.151E6
