Mw=634.5;T=100;chem=PI;origin=LeedsDA;label=PI600k_02_PP10;PDI=1.03;
Freq	G'	G"	Temp	Strain	PhaseAngle	Eta*	Torque	PhaseAngle	Eta"	Eta'	Temp	tan_delta	NormalStress
rad/s	Pa	Pa	°C	%	°	Pa-s	N-m	°	Pa-s	Pa-s	°C	 	Pa
         31.623       3.7126E5          62755         100.01         1.9769          9.594          11907        0.00146         9.5942          11740         1984.5
         21.544       3.5645E5          67673         100.01         1.9792          10.75          16840        0.00141          10.75          16545         3141.1
         14.678       3.4049E5          73793         100.01         1.9802         12.228          23736        0.00135         12.229          23197         5027.5
             10       3.2293E5          81107            100         1.9816         14.099          33296         0.0013         14.099          32293         8110.7
         6.8129       3.0334E5          89674         99.996         1.9831         16.469          46429        0.00123         16.469          44524          13162
         4.6416        2.808E5          98936         99.994         1.9849         19.409          64141        0.00116         19.409          60496          21315
         3.1623       2.5542E5       1.0887E5         99.993         1.9866         23.086          87803        0.00108         23.086          80772          34429
         2.1544        2.261E5        1.192E5            100         1.9888         27.798       1.1864E5      0.0009981         27.798       1.0495E5          55328
         1.4678       1.9135E5       1.2834E5            100          1.991          33.85       1.5698E5     0.00090076          33.85       1.3037E5          87440
              1       1.5052E5       1.3262E5         100.01         1.9943         41.381       2.0061E5     0.00078556         41.381       1.5052E5       1.3262E5
        0.68129       1.0802E5       1.2719E5         100.01         1.9972          49.66       2.4493E5     0.00065436          49.66       1.5855E5       1.8669E5
        0.46416          69459       1.1195E5         100.01         2.0008         58.183       2.8384E5     0.00051759         58.183       1.4965E5       2.4119E5
        0.31623          40247          90510          99.98         2.0029         66.027       3.1324E5     0.00038956         66.027       1.2727E5       2.8622E5
        0.21544          21481          68292         99.996         2.0045          72.54        3.323E5     0.00028177          72.54          99704       3.1698E5
        0.14678          10867          49202         99.987         2.0049         77.545       3.4329E5     0.00019835         77.545          74035       3.3521E5
            0.1         5374.2          34540         99.987         2.0057         81.156       3.4956E5     0.00013766         81.156          53742        3.454E5
        0.06813         2652.8          23899         100.02         2.0057         83.666       3.5295E5      9.4699E-5         83.666          38938        3.508E5
        0.04642         1330.1          16427         100.01         4.0126         85.371       3.5507E5     0.00012985         85.371          28656       3.5391E5
        0.03162         696.92          11255            100         4.0127         86.457        3.566E5      8.8849E-5         86.457          22039       3.5592E5
        0.02154         367.68         7713.3         100.02         8.0326         87.271       3.5842E5     0.00012179         87.271          17066       3.5802E5
        0.01468         206.06         5297.5         100.01         8.0338         87.772       3.6119E5      8.3628E-5         87.772          14039       3.6092E5
